##BLOCKS= 1          																															
Plate:	Plate01	1.3	PlateFormat	Spectrum	Fluorescence	TRUE	Raw	FALSE	22			455	560	5			1	24	384	414	Manual	455	Emission Sweep	414	6	Automatic			1	16	None
Wavelength(nm)	Temperature(¡C)	1	2	3	4	5	6	7	8	9	10	11	12	13	14	15	16	17	18	19	20	21	22	23	24						
455	23.6	13725.241	12156.353	12102.52	13610.895	12323.306	11556.46	14031.858	12144.374	12978.882	15844.987	14438.683	13443.066	14555.034	13974.949	22608.096	12469.52	15376.069	13044.355	13219.797	12014.722	12613.321	13943.441	15034.471	13593.072						
		14203.261	14502.632	14896.615	13570.993	14485.141	16070.644	17201.992	20716.01	16462.025	27854.367	14792.729	13285.301	13766.228	14379.97	18531.404	13922.208	19680.416	13505.531	13550.197	13715.145	13393.939	14160.69	18501.637	14377.021						
		14125.821	32607.754	16671.91	39076.074	12695.557	13919.93	77023.063	13662.671	14364.925	14555.938	13228.689	14202.17	13368.801	17118.182	16414.623	13975.776	18144.303	12091.722	16423.006	15037.245	13060.9	14964.821	13873.049	27288.205						
		15199.907	25141.104	13551.453	13325.714	20186.506	12922.797	14137.213	14300.949	13204.991	13383.355	12890.637	14347.439	15077.16	14013.325	13171.21	13754.411	17312.082	13017.801	13319.229	13040.231	16613.57	14208.146	26526.963	13327.455						
		17883.975	13407.167	13768.424	12952.1	12566.503	13444.688	15733.467	13878.616	13673.97	12200.6	13317.807	13903.421	12948.871	12034.014	14072.725	13685.796	19984.391	13445.521	13704.12	13146.495	18523.998	14992.109	38392.75	18643.986						
		14547.414	12358.104	15008.795	13451.57	12619.644	19361.393	13278.727	13275.876	12813.832	13792.367	13147.348	11969.181	12285.168	13107.547	23265.852	12675.008	13674.021	13546.381	13600.312	12637.129	15517.819	12983.742	15494.623	13792.185						
		14154.308	16746.244	12954.33	12303.194	13468.449	13063.412	13678.109	12900.589	13271.333	12982.527	12150.185	14117.44	14279.612	12057.731	12736.584	14059.139	14544.35	13629.59	13136.317	12661.175	14491.811	13619.244	12933.241	19338.316						
		13879.807	12832.094	15632.821	13887.587	13968.145	12641.646	13038.534	13195.451	15107.915	13683.722	12939.079	13463.098	12509.13	13759.538	13601.844	12850.064	13449.606	12624.229	15437.19	13007.968	14281.238	13800.722	14066.892	13097.498						
		28527.6	12786.006	12780.203	11800.837	13825.347	12294.935	12338.656	12301.953	13275.729	12810.69	12714.416	13088.278	14248.237	13258.456	13402.406	12505.649	13679.596	15429.045	15046.321	12683.488	11748.609	13151.508	11866.646	13910.384						
		14825.809	13619.681	12192.685	11484.903	13234.196	12110.997	13113.921	12103.633	13144.266	11846.521	12425.943	13204.41	12517.219	13108.55	12926.76	13139.92	12709.464	12544.838	12629.417	13009.758	12152.169	13237.305	13514.54	26801.42						
		12229.09	12767.763	13108.518	11579.796	12425.229	13826.242	12814.909	12045.468	14113.838	13815.875	16109.825	15949.606	13089.225	13025.488	15188.553	12636.535	13454.139	12999.646	15061.26	12843.451	13404.739	22456.803	17231.381	12757.286						
		21901.67	18270.945	12772.694	12952.775	12894.575	14267.23	13073.282	13039.772	12821.832	20346.863	12920.649	14174.449	12948.624	13627.475	13841.93	16371.712	14039.287	12908.669	13555.569	12988.709	13438.021	12702.668	12727.646	13360.979						
		14433.947	12684.08	12826.983	13189.874	12142.838	13126.267	12465.415	11915.366	14419.603	14059.007	12782.928	13324.91	12835.013	14030.971	13552.919	14974.211	13719.881	12852.487	13782.916	13406.792	11900.291	12682.65	13844.173	13533.49						
		15576.274	15369.293	13672.846	12757.103	11839.458	14064.396	13032.287	13325.939	12880.203	15233.89	13751.652	14851.557	13507.814	12914.646	12428.305	13442.489	16235.596	15086.615	14071.132	13117.03	16862.258	18503.254	17054.965	13570.844						
		14595.554	12168.836	13016.426	13629.177	13319.023	13943.918	19179.686	20334.031	17819.234	22531.937	19255.018	27492.496	13381.329	20727.619	17901.549	13863.653	26358.963	21069.047	17496.633	18260.25	13817.537	14378.116	19351.564	19786.107						
		15268.283	14553.247	15479.021	12233.098	19731.596	18959.148	15360.599	12966.941	13872.909	15099.948	13464.842	14022.021	16113.81	22660.199	19862.389	19006.227	17867.953	12494.171	14083.857	12504.96	15717.179	19673.268	15073.893	13529.52						
																															
460	23.6	14151.639	11339.559	11577.205	12330.305	13913.561	12617.604	13390.947	12091.167	13298.142	14147.542	14932.808	15031.331	15477.994	14849.133	12653.289	13522.25	15855.014	13193.982	13449.656	13030.702	12364.706	13972.383	13757.533	15191.223						
		14193.512	15227.918	14322.388	13652.08	17246.199	16611.93	14834.296	21763.875	15986.447	27069.33	15404.563	15001.318	15319.536	15629.134	15859.6	15417.841	18117.559	14987.372	14193.566	14732.908	15615.451	14377.998	20405.494	17082.705						
		13901.648	35241.309	18615.062	42602.789	13837.163	13540.527	84873.398	14895.999	16139.302	16022.306	15573.104	19612.141	15550.239	20216.309	17591.955	15779.521	16751.994	15194.233	17356.623	16818.377	14176.543	14689.407	16135.283	28899.865						
		16240.886	28638.543	14332.867	15363.539	22563.311	12974.328	13918.147	14081.915	15838.132	13975.814	14082.891	14666.076	15395.736	14924.376	15093.302	15329.064	15086.455	15047.99	14322.689	13918.895	17217.143	14459.607	27456.881	15964.168						
		16160.178	14193.664	14377.4	14303.903	12715.598	13951.355	17127.893	13772.383	14398.872	14753.61	14611.87	13968.899	13455.77	13208.363	14429.787	13301.625	23890.137	14368.097	15058.867	14057.596	21110.201	16635.736	44640.004	17694.002						
		13514.035	13927.472	14823.668	15077.854	13345.478	22237.631	14488.332	14232.883	15599.347	15048.657	13766.252	13466.792	14087.01	14138.563	24914.604	14475.516	15451.549	15368.864	15359.987	13958.396	14582.937	14499.945	15710.688	14887.879						
		14615.33	17896.432	14648.844	14291.211	14883.523	13870.825	14517.88	14567.849	14039.322	14565.318	14448.619	14377.199	15219.683	14322.596	14130.287	15356.67	14202.382	14254.745	14348.372	14823.286	17153.707	15326.099	14763.838	20897.91						
		13319.313	14583.596	15943.527	13299.406	14061.895	13613.528	14038.11	14683.773	16757.051	14356.332	12665.232	13955.998	13298.732	14154.686	15759.383	14586.431	15099.758	15195.597	17228.602	14293.029	15618.344	14770.868	15250.646	14496.693						
		31047.385	13207.347	13181.59	13520.801	12905.423	13871.05	13175.798	13678.494	14936.96	14617.586	13585.576	13585.507	16023.003	14987.858	14267.868	13461.941	14242.025	14473.871	16706.375	13806.126	13125.333	14374.333	14261.77	14156.317						
		14034.73	13488.417	13282.514	13642.082	13233.713	14622.676	13228.038	13860.256	14582.302	14663.441	14053.133	13691.078	14528.824	15701.264	14585.422	14690.321	14939.144	14294.526	13436.759	13787.094	13704.543	13565.028	14160.593	28028.305						
		13889.63	13937.195	13921.975	13426.196	13764.946	14041.366	13596.779	15408.836	13749.563	13728.904	17365.914	18553.973	14516.119	13558.684	17690.727	14665.75	14219.187	15022.645	14727.943	14007.753	17230.047	25440.318	18923.09	13156.974						
		17690.535	13806.499	13943.113	13406.635	14846.078	13491.225	13869.127	14744.298	13569.485	21304.635	14585.188	14208.282	13716.408	14729.037	16543.789	17542.91	14982.709	14633.136	14201.275	14895.104	13218.21	13867.839	14072.629	15104.184						
		14459.711	14921.479	14397.388	13999.65	14105.094	13978.508	15141.498	14276.774	14886.461	13754.665	14467.556	14165.463	21443.109	19776.322	13019.394	15734.443	14394.716	14950.912	14002.1	14974.709	16839.354	16024.976	16484.961	13598.923						
		14895.264	13122.365	13468.904	13690.132	14648.483	14102.415	14184.928	14599.496	20626.316	19834.23	13735.811	14665.313	14656.993	14260.489	14901.622	15063.005	15902.65	16226.812	14537.95	14723.742	13559.694	14959.732	21323.057	14611.638						
		14763.813	13659.106	13793.738	13402.146	13988.649	14493.942	12443.349	15044.227	14931.85	16558.617	19423.162	26694.584	15226.329	22063.496	18239.227	18405.207	16825.838	16219.62	19167.707	18964.637	15431.941	15594.596	19641.598	19904.656						
		16511.15	17484.914	20204.256	16197.724	15041.544	13480.911	20778.707	19811.783	15434.617	15633.484	14350.337	15344.407	14503.871	22807.932	15324.04	14200.434	19079.537	17865.34	13816.237	12767.775	14330.662	18864.619	15608.662	16141.33						
																															
465	23.6	13893.692	13711.519	13749.311	15093.579	14819.914	13767.443	13735.91	13696.582	14280.757	14680.404	14412.711	13541.066	14782.926	15528.564	14730.989	14278.766	16051.326	15131.223	13850.345	14552.84	14755.676	14897.979	14264.798	17590.426						
		14399.417	15010.126	15895.142	14420.435	17459.645	17203.051	15757.587	23301.15	16001.09	29631.107	15637.283	16145.697	16735.881	16903.539	17345.295	16527.877	19223.051	15334.324	16680.521	16622.729	18195.156	15868.392	22986.18	18217.959						
		15018.107	36217.84	18659.086	42268.016	14750.486	16029.094	90773.141	15519.833	16737.842	16306.667	16379.524	19520.861	15924.332	19192.742	18608.813	15905.683	16914.85	16971.211	17771.898	16356.611	15515.665	17166.723	16103.238	29712.762						
		16325.437	30384.092	14324.542	17391.285	23290.988	15776.072	14796.591	15634.042	16569.508	15803.022	15125.813	16680.578	15664.821	15419.355	16233.479	15584.076	17009.76	16245.145	16392.512	14705.896	19489.371	15931.738	31044.074	15846.352						
		17028.313	14729.918	15526.693	14478.049	15816.806	15283.567	17910.467	16459.33	15660.363	16562.531	15483.488	15293.113	16200.551	15373.476	15618.129	16959.438	25099.719	15683.341	16432.73	15666.042	22007.227	17697.943	46712.293	17774.701						
		15232.405	14574.593	17114.004	14973.659	15591.937	24045.818	15437.216	16178.594	14626.747	17054.15	15276.021	15420.984	15342.629	15312.46	24757.625	14496.832	16722.463	17081.006	16700.027	14379.117	17624.16	15870.252	17663.633	16081.526						
		15035.896	18107.697	14876.109	15331.535	16491.293	15570.656	15628.332	15662.332	16079.658	15583.258	14376.864	15962.665	16358.354	16141.812	14827.094	15503.429	17758.891	14028.82	15182.322	16014.29	17078.584	16213.002	16677.85	21842.215						
		14988.048	15999.482	17395.375	15063.967	14917.644	16060.07	16140.574	15687.142	17426.119	15402.165	15346.205	15457.436	15656.508	14581.336	16705.533	16110.82	16334.703	14669.981	18880.437	16322.721	16302.617	16048.471	17291.855	16887.422						
		31480.404	15243.181	13804.12	15326.796	14687.478	14588.556	16883.588	14949.363	15827.013	15704.63	15724.984	15067.649	15468.85	16804.404	14957.514	16418.07	16832.713	18078.527	17997.67	16114.632	15823.953	16395.521	15315.099	15660.555						
		14808.599	14361.917	14386.331	14594.273	15522.361	14868.162	16080.262	14225.768	16108.752	14581.125	15637.993	16665.182	14957.062	16596.234	16852.125	16405.961	16336.728	15313.216	15382.092	15803.388	16465.52	15673.592	16043.953	29216.83						
		15042.971	13649.867	14530.484	14231.914	13093.896	13662.402	14738.927	15220.785	16407.801	15754.259	17969.576	19922.869	15345.196	15175.549	18489.707	15704.387	16740.336	15860.731	16959.42	15257.153	18416.904	26349.527	21592.773	14134.244						
		19367.896	15403.531	12825.027	14641.9	15348.578	15346.129	14682.539	15998.297	15789.689	23914.918	14603.36	14724.936	15905.255	15076.063	17413.082	17697.479	15706.282	15080.902	16143.663	15563.127	15039.717	15468.422	15990.939	16485.02						
		17893	18197.012	14952.014	14046.375	16062.137	16572.559	14909.115	14788.691	15268.297	14806.262	15808.171	15765.714	20267.156	20863.914	15588.785	17144.055	16057.859	15834.506	16428.023	14718.901	20307.191	19941.719	17074.533	16055.312						
		15391.721	14574.547	14978.583	15652.862	14863.091	14805.406	15144.268	15492.789	20547.994	21451.775	16819.73	18090.803	15311.023	15385.943	14842.98	14920.816	16316.352	18057.789	15788.463	15872.563	15727.556	16200.534	20885.182	15239.803						
		14559.777	14359.055	16273.928	14025.933	14006.92	15079.81	16202.028	17478.934	16947.715	17679.115	16079.738	23739.568	14901.017	23411.369	23149.299	22151.629	18082.389	18321.709	14562.053	15431.638	15587.055	16024.731	17155.938	19900.998						
		16441.318	16303.51	16277.441	13932.292	15144.737	14762.567	17096.01	16375.969	15706.725	17745.404	15079.43	16463.396	16094.965	25303.506	16575.137	15591.029	17298.199	16119.876	20127.168	19471.25	15373.191	20632.139	16040.163	16000.267						
																															
470	23.5	13468.579	13950.047	14199.222	16505.682	13890.46	14409.773	15926.237	14088.492	15395.015	15559.546	15483.952	15537.5	16586.346	15626.468	15055.892	16285.374	16320.918	15852.875	16164.833	15428.674	14600.605	16289.396	17363.107	16972.455						
		15581.985	17747.863	17959.342	15039.909	20599.926	18690.947	17603.045	26278.943	16665.52	32430.074	17114.631	17633.852	15807.729	16836.75	19160.738	17658.139	19204.008	18393.641	17912.34	17587.568	18676.586	17030.271	23316.662	20172.057						
		15888.249	37568.758	18695.498	42521.242	17396.697	17203.723	83061.055	16662.762	17720.484	15998.297	16781.574	21288.773	16455.447	21178.783	18209.639	17679.32	18761.359	16673.219	20257.604	18023.943	17352.549	17127.695	16170.041	32010.422						
		18071.572	30690.908	16608.764	18256.895	22951.766	15924.797	17692.414	16244.613	17637.996	16803.971	16345.22	16650.227	17579.049	17805.186	16440.566	17399.379	17630.133	16599.557	15438.235	16248.405	20042.961	17351.199	30716.824	17221.822						
		17728.682	16541.145	17002.184	16145.343	15867.161	16816.664	19494.988	16447.781	17344.668	16382.685	18248.545	16878.965	16087.247	16154.112	15987.47	17321.242	26157.205	17116.031	17667.236	17035.25	24584.395	18819.648	50602.813	18178.285						
		15960.873	16028.125	17138.693	15927.105	16592.066	26410.174	16532.969	16395.797	16795.232	15855.676	17932.084	16466.625	16422.504	17369.687	27254.566	16971.188	17051.148	16574.912	17107.15	16782.746	19177.098	18058.879	18708.754	17143.549						
		15720.053	18960.711	16727.521	15589.101	16915.381	16124.276	17734.166	17044.514	17259.764	17324.582	16361.11	17153.439	16863.932	17221.432	16365.329	17366.113	17185.193	16511.777	18156.393	16964.596	18290.279	17824.166	17596.602	20242.037						
		15793.891	14990.424	17829.066	16266.008	16253.705	15354.881	16332.238	16644.836	19310.328	15659.996	17338.449	17239.605	17132.852	16698.373	17125.742	17495.219	17103.209	17365.252	20789.143	16356.175	18759.984	16909.754	18448.801	17195.664						
		33257.008	15366.504	15746.468	16363.199	15746.518	17072.729	16079.006	15600.801	16382.216	16788.992	16160.991	17399.852	16548.057	15704.124	16078.784	17051.709	17105.039	18673.637	19755.002	16921.309	17156.387	17276.289	16742.422	17592.865						
		15881.76	14728.409	16395.512	15578.044	15434.025	16859.668	16805.953	17517.631	17478.516	17662.293	16896.857	18081.389	16141.699	17357.869	16536.305	15610.476	16635.799	17064.453	16420.428	16667.764	16748.871	17041.5	16606.316	31580.777						
		15572.008	15374.813	15917.99	15748.521	15572.773	15679.234	15582.045	17045.908	15934.331	16366.585	20392.08	22158.186	16742.633	17015.576	19175.771	16464.031	17918.941	17265.488	17199.523	17519.006	19513.129	26356.965	21194.053	17273.76						
		21204.359	17162.672	15780.911	15872.969	15729.731	16041.188	16287.555	15513.431	17425.965	24734.008	17197.756	16625.812	17619.645	18145.965	20095.361	19688.348	17056.797	17812.027	16911.684	16827.055	17004.51	17311.162	15511.917	17131.271						
		20205.488	16254.861	15293.28	15508.2	16542.434	15660.981	15238.396	15908.29	16795.658	17697.305	16378.511	17961.316	16751.363	17409.273	17035.428	20302.629	17919.674	16075.235	16442.135	17688.393	16582.955	17364.803	17527.877	18445.838						
		15929.053	15753.226	16698.27	15010.238	16042.125	16719.674	23630.314	22248.855	16887.658	17328.172	16185.612	17306.135	15028.557	20016.246	16387.693	16881.801	17685.521	19535.545	16777.678	16364.608	16611.621	16772.541	26114.254	20303.373						
		16603.604	17124.801	17198.428	15269.293	21250.932	21773.334	15669.864	15710.156	21115.979	21855.639	16643.914	25353.793	15474.729	23553.086	17228.795	16923.566	20608.775	21481.689	17665.699	17064.34	17160.4	17262.482	17784.033	18712.283						
		16616.535	15790.598	23098.725	19284.908	15376.853	16222.426	17966.031	16407.615	16310.842	18523.781	20884.184	22535.027	23262.041	33130.844	18050.799	17110.41	17345.357	16271.498	21005.609	19965.592	21177.738	26562.662	17296.641	18000.686						
																															
475	23.5	14281.43	14557.166	13157.598	15426.386	15130.397	14983.876	14353.249	15927.93	14766.146	16546.418	15997.049	15545.323	17262.822	16647.066	15062.413	14717.813	15765.999	15955.086	15994.296	15414.893	14360.423	16827.09	16636.041	17585.893						
		15407.007	16229.661	17137.396	15646.199	20507.451	17992.881	16130.805	23630.242	16344.122	29469.602	16588.557	16889.914	17461.197	17307.32	19075.609	17526.504	20382.951	16245.82	16367.598	16759.285	18396.146	17088.152	22066.881	18816.83						
		16195.142	34904.07	18527.082	41202.875	15316.127	15282.259	82368.984	17088.563	17128.021	17133.238	16629.033	19202.041	16441.824	21417.523	18568.619	18063.428	17966.006	16363.661	19377.479	17761.197	16549.707	18183.793	17462.588	30141.766		17657.662	17657.662			
		17530.674	28511.652	16151.622	19179.479	22445.232	16211.271	16403.303	17857.498	18316.221	16498.49	16015.418	17844.301	17176.018	17177.975	17302.234	16936.963	18123.555	17388.287	17347.104	16801.486	20757.313	16257.184	30302.273	17071.113		16221.566	16221.566			
		17004.594	15743.604	16579.896	16038.069	16425.373	15826.358	19916.588	16360.758	16332.81	16492.588	16530.244	15746.853	16988.902	17656.678	15952.734	17431.393	26986.676	16788.496	17397.322	16739.473	22556.756	19732.119	49955.16	19791.191		15508.07	15508.07			
		15465.389	15822.64	17488.062	15564.391	16216.702	27050.51	16398.605	16380.499	16730.754	17790.334	17396.152	16568.721	17610.289	16242.834	25031.096	16256.415	16891.5	18552.326	17270.281	16506.662	18266.627	17111.299	17709.051	16580.404		17642.904	17642.904			
		16864.742	17576.916	18009.225	15815.717	16768.687	15015.392	15699.653	17869.723	17583.674	15138.313	17342.947	15991.069	17657.662	16221.566	15508.07	17642.904	17482.609	17165.154	16197.645	16942.059	19567.246	18907.49	18387.123	19988.031		17482.609	17482.609			
		15319.951	16346.859	16341.835	15699.001	15632.918	16964.322	16018.927	17065.301	18334.049	15905.561	17197.674	15882.824	17018.635	17317.256	16853.393	17158.328	16226.854	15837.614	18937.725	16379.183	18064.012	16962.949	18314.973	16425.398		17165.154	17165.154			
		31809.955	15954.086	16195.559	17612.145	15428.065	16654.148	15892.985	17098.328	16617.82	16409.281	17265.139	16614.574	17260.49	16516.361	17475.977	16724.979	17502.332	19144.797	19118.816	16496.182	16847.852	17268.182	16260.884	17354.336		16197.645	16197.645			
		16690.637	15546.755	16239.936	15490.619	16072.889	15351.394	16411.875	16248.506	17492.143	17948.053	17250.961	18346.299	17194.576	16324.118	16585.16	17192.268	16599.57	17297.375	15569.62	15704.628	16155.078	17112.461	16434.418	29173.309		16942.059	16942.059			
		15904.002	16461.764	14730.133	15937.715	15844.38	16356.893	17979.537	16069.16	16702.592	17025.164	20952.152	20837.299	18267.145	16798.039	19282.139	17128.756	17041.756	15687.37	17188.77	16544.494	19657.775	25038.332	21308.881	16458.461		19567.246	19567.246			
		19737.859	16319.786	15789.211	15163.759	16296.176	16764.254	15501.316	17081.623	17290.35	23826.594	17172.592	15917.825	17688.02	16516.277	19358.004	20608.695	17888.082	17395.299	17098.256	16657.865	16697.213	17946.486	16879.453	16921.084		18907.49	18907.49			
		18966.646	16346.992	16035.503	16559.225	19975.369	21794.191	15920.017	16053.502	15703.355	15997.319	16845.113	17697.918	16174.918	16948.301	16144.783	18985.523	17070.139	17395.359	15834.163	17127.861	15941.965	16166.447	24952.277	22901.932		18387.123	18387.123			
		15308.867	14747.412	15640.669	15643.397	15998.784	16302.352	23729.125	23456.709	16852.25	16817.592	16992.203	15759.875	15698.996	18961.695	16965.363	17841.98	16726.518	19055.25	17148.551	16903.922	21047.387	21652.629	21322.842	17820.656		19988.031	19988.031			
