##BLOCKS= 1          																															
Plate:	Plate01	1.3	PlateFormat	Spectrum	Fluorescence	TRUE	Raw	FALSE	14			495	560	5			1	24	384	475	Manual	495	Emission Sweep	475	6	Automatic			7	10	None
Wavelength(nm)	Temperature(¡C)	1	2	3	4	5	6	7	8	9	10	11	12	13	14	15	16	17	18	19	20	21	22	23	24						
495	23.9																														
																															
																															
																															
																															
																															
		54058.496	37378.434	38698.836	35389.754	36126.367	35240.34	37202.68	37130.352	37784.559	33300.813	31873.623	32642.582	32443.559	31623.496	32116.791	35203	34190.754	34211.25	33710.57	32279.648	30093.805	32128.742	29432.691	38319.875						
		43018.922	37899.937	37096.609	36090.227	36651.934	40285.176	36695.543	33954.75	37958.578	33693.844	33043.691	31584.854	31641.65	31419.975	34250.746	33753.008	33002.164	35746.328	32896.828	28929.643	31032.146	29588.955	31122.986	31828.055						
		44596.996	37170.762	37153.391	34553.352	36147.465	35173.16	35210.527	34150.609	34304.129	34008.383	32599.664	33209.457	32561.898	32583.387	31367.545	32778.391	32692.436	38742.195	39727.684	30810.971	30943.225	29314.609	29085.99	32510.314						
		57473.676	36542.027	36435	34708.105	33205.488	34727.434	34256.102	33039.215	33845.543	32791.457	32917.773	33462.844	31279.193	32029.584	32867.652	35062.773	33194.977	32587.379	31761.963	29066.492	29982.266	29403.092	29308.863	39551.988						
		62854.523	38770.918	38863.254	34261.18	35040.082	36310.762	36560.762	34417.676	33393.82	32631.982	37032.078	32815.988	31932.355	33004.574	31787.832	34952.238	33108.109	31809.26	33199.668	30039.447	28724.844	30050.352	32162.604	33151.543						
		64581.707	42124.504	91646.523	94718.789	34500.738	38153.41	44076.34	33878.625	34730.043	35419.434	34842.191	33872.5	29224.328	31550.723	37976.906	34896.926	35430.598	35829.609	34093.387	32855.922	32275.727	31059.76	29529.92	33988.801						
		67204.812	36360.402	55049.367	59261.285	38522.906	45036.727	45386.195	38794.684	40554.961	36420.336	34719.367	34555.402	34307.793	34202.449	35673.922	36493.121	65674.367	54182.16	37429.777	35134.023	83257.883	83649.008	33604.324	34996.441						
		67698.281	37268.777	40106.859	41387.633	37614.543	45259.215	39684.648	42310.578	41485.797	74080.023	41353.203	49558.375	38953.562	43044.687	75591.109	70562.914	110852.297	31957.035	40652.684	34093.43	41564.824	47038.523	55658.367	38005.711						
		78198.141	38307.562	44709.566	44498.527	85417.281	94528.242	57007.496	57938.762	69286.312	101274.773	156931.5	169622.844	43795.305	51928.078	129317.258	32939.73	208413.547	71424.898	128475.328	130451.695	73263.234	83877.75	55545.305	38722.055						
		65716.227	57543.535	61273.938	39885.164	44996.32	42510.164	156338.891	139832.844	167990.063	169593.156	57872.145	61148.871	146397.187	101588.398	126347.094	75229.859	119038.953	31402.523	39255.781	39021.395	43295.02	60453.992	118547.422	87516.305						
																															
500	23.9																														
																															
																															
																															
																															
																															
		26653.199	19397.576	18728.219	17874.199	17977.637	18402.719	19403.184	18313.01	19427.77	17900.695	17093.428	16599.725	16139.399	16495.068	15761.768	17679.68	17514.389	18336.32	17584.252	16255.062	15986.148	16887.91	16537.332	20621.537						
		22354.141	19353.902	18534.107	17688.711	18529.258	20702.756	18146.697	18169.617	17596.383	17143.789	17209.176	16576.514	16772.352	16926.516	17553.973	17017.148	17208.816	18513.975	17959.027	15907.254	16701.416	15282.546	16087.028	16289.966						
		21616.566	17930.48	19859.574	17966.904	17807.404	17535.896	17676.795	17093.768	17665.693	17712.621	16838.201	17565.182	17042.674	15506.085	15369.566	17227.908	17280.855	19718.428	19354.604	15657.524	15599.547	15518.375	15577.774	16256.925						
		26636.402	18547.105	18580.766	17581.957	17613.119	17340.141	18642.645	17684.422	17486.055	17565.137	17175.232	16534.816	16406.006	16642.424	17162.59	17349.871	17222.141	17072.701	17092.072	15601.714	15458.775	15244.775	14830.219	19586.781						
		29714.914	20094.592	19329.264	17097.164	17319.199	18985.432	18104.654	17650.244	17603.977	17830.02	20641.76	17182.26	17417.992	16957.154	16807.344	18149.236	17344.424	17018.371	17104.055	15952.089	16243.295	14701.834	16496.854	18543.83						
		29665.402	19830.836	43003.086	43929	19550.313	20236.617	22324.242	17372.5	18786.252	19135.434	16688.971	16630.824	16455.527	16892.1	17621.621	16994.529	17656.373	17198.516	17262.643	17027.152	18353.17	17307.047	15720.857	18332.865						
		34043.578	20457.469	26089.078	28461.648	19789.066	22751.684	22313.607	18236.098	20165.322	18445.283	17688.164	18341.271	19954.996	17986.984	17540.938	18848.775	22706.316	18536.469	20342.373	19162.219	26881.461	27007.91	18789.813	20382.391						
		70544.258	64784.828	19634.197	22035.037	34325.273	38631.586	21168.721	21081.496	22628.807	36860.648	20490.195	24744.598	29067.16	30332.398	19796.928	17911.486	53253.883	17342.043	31690.875	28566.158	18137.43	21180.398	74461.398	69556.969						
		40259.395	22725.213	24155.713	22187.15	19741.107	23259.428	23398.051	22072.682	64891.48	82538.977	38182.109	38895.016	23819.15	27269.932	61098.668	17413.5	87025.219	26518.344	22387.115	20120.834	41890.934	45670.859	30141.947	23223.053						
		34510.313	29244.107	30356.875	21761.887	38699.77	38148.969	36202.402	32466.611	30586.871	38874.051	52031.609	53505.77	59099.684	36156.883	64975.41	39495.262	59938.891	16890.336	31519.553	31782.623	21950.311	29679.371	38831.633	22016.576						
																															
505	23.9																														
																															
																															
																															
																															
																															
		15161.647	11272.403	11442.363	10988.914	11714.603	11034.503	10946.398	11164.204	11304.734	10654.752	10022.943	10457.999	9914.005	10044.201	10439.187	11250.814	10576.492	10856.001	10770.268	9470.424	9890.213	10044.708	10338.896	11688.822						
		12379.354	11943.308	10725.546	11425.451	11399.654	12701.357	11390.969	11038.229	10680.383	10277.761	10426.563	10382.648	10313.834	11144.107	9847.124	10489.573	10495.929	11372.496	10203.35	9720.621	10311.389	9324.477	9536.757	10517.958						
		12379.55	11024.776	11769.795	10863.732	10712.805	10290.364	10771.248	10886.332	10960.163	10414.189	11192.58	10549.358	10255.545	10477.671	9594.467	10166.614	9315.051	12190.189	12115.258	9910.155	9500.342	9900.566	10419.544	10811.651						
		14974.569	11197.099	11098.414	10243.574	11186.375	10976.173	10845.232	11307.941	10754.8	10672.194	10156.656	9480.513	10086.677	10716.647	10159.236	10594.864	9684.858	10466.021	10296.409	9389.114	10242.855	9514.085	9828.26	11759.585						
		17025.629	11747.701	10900.232	10978.819	11186.584	10638.747	10969.221	11578.903	10958.026	9604.194	11862.616	10280.354	10137.124	10280.845	9920.346	11317.315	10761.804	11053.347	10631.43	9520.025	9036.689	9914.341	9995.812	10841.358						
		17285.697	12148.14	10654.717	11145.545	10756.324	11299.963	13440.853	11443.515	10420.035	11992.939	10646.751	11317.734	15610.001	17676.5	11651.878	11197.914	10460.507	9732.824	10844.889	10916.739	11405.52	10547.855	9638.03	11205.303						
		18815.611	12401.405	11222.804	13083.027	11528.503	12477.291	12673.317	11015.629	11699.055	11519.463	10900.692	11871.865	11166.284	11052.532	22379.67	21720.168	12943.281	10566.413	20018.789	20298.893	10513.984	9482.931	11137.696	11678.849						
		41773.137	37253.344	11621.456	12672.79	11177.582	13422.385	19592.877	20908.148	12285.491	19681.596	42182.402	45643.426	20740.551	21501.645	12356.746	11173.442	28437.238	10177.201	12929.509	10624.536	11385.427	11876.174	15659.616	11650.919						
		22456.072	13067.192	14630.725	14831.998	11426.163	13460.112	21105.896	21237.797	28264.91	37045.852	22293.52	21453.119	13319.724	14929.289	37898.133	15670.984	42715.012	11071.451	22867.859	23415.279	36148.059	40578.004	15686.469	12025.461						
		19601.844	16511.436	36241.086	32116.633	22799.92	23369.486	22299.322	18873.922	15969.125	20397.934	16580.514	16306.18	25433.359	14168.419	22141.143	11093.744	37287.465	15849.951	10832.915	11180.846	13108.969	18057.604	31780.734	22566.863						
																															
510	23.9																														
																															
																															
																															
																															
																															
		8054.114	6641.954	6984.072	7122.784	7248.799	6656.297	6797.345	6604.552	7835.606	6535.545	6597.401	6116.419	7440.8	6459.13	6177.412	7025.437	6682.75	6642.779	6508.243	6467.669	6817.51	6386.385	6479.056	7431.845						
		7856.175	6803.147	7052.337	6247.575	6569.74	7658.933	6805.135	6700.929	6630.515	6770.79	7453.802	6469.485	6625.216	6738.145	6400.617	6811.645	6311.298	6892.082	6128.429	6212.059	6451.765	6180.845	6048.013	6379.539						
		7204.999	6332.072	7022.688	6629.624	6425.248	6449.096	6841.82	6877.059	6527.174	7141.618	6446.23	6833.439	6745.418	6253.841	6388.42	6272.173	6621.593	8227.277	7487.297	6398.196	6037.626	6643.14	6467.076	7229.242						
		8756.675	6117.418	6437.919	6586.806	6260.583	6442.353	6837.831	6542.38	6646.349	6417.178	6646.437	6115.461	5985.752	6339.125	6842.486	7424.468	6634.154	6674.78	6592.216	6041.19	6092.135	6312.429	6354.705	7521.655						
		9068.881	7582.727	6486.793	6845.113	6167.15	6639.698	6595.952	6466.233	6086.098	6819.834	7732.364	7395.268	6514.018	6713.087	6883.631	6676.332	6479.904	6586.971	6448.19	6283.275	6260.007	6342.807	6646.24	6227.877						
		9212.453	6529.758	8076.678	8064.445	6906.72	6889	7619.288	6439.698	6855.017	7370.033	6088.036	6842.607	6368.139	7007.866	7350.771	6848.674	7020.303	7116.291	6845.17	6303.677	6725.141	6398.046	6753.646	6442.738						
		10095.572	7143.211	18747.721	18083.066	7114.697	7842.398	7492.197	7586.423	12216.867	12669.925	6502.132	6978.81	13220.787	13348.478	6985.409	7464.722	8244.662	7043.505	14848.885	13221.092	6625.73	6212.785	12318.462	12602.475						
		9081.325	6550.803	7860.197	8638.964	10515.504	11752.776	6957.762	7605.573	8174.917	10762.514	11776.125	13035.094	7680.55	6457.032	6965.118	6333.1	19325.217	11010.917	7807.023	6986.276	6673.785	7866.505	8564.201	7904.721						
		15688.037	12608.679	7134.912	7332.467	6720.089	7737.48	8886.03	9508.552	11205.422	14908.786	14632.153	14845.795	9619.836	10914.438	14713.837	6186.71	19434.512	6932.21	12060.354	10672.255	14400.938	15528.409	12113.17	10672.994						
		9556.062	8879.57	8926.85	7476.99	9932.602	10616.441	20222.316	20138.48	8370.924	10902.944	11089.02	10267.571	11347.112	7802.139	18017.113	13777.423	20167.904	11593.553	6325.121	6611.136	7814.058	9348.529	11292.545	7389.926						
																															
515	23.9																														
																															
																															
																															
																															
																															
		4206.885	3935.128	4274.197	3731.021	4747.741	4073.139	4175.06	4472.729	4228.468	4271.633	4474.6	4126.739	4454.196	4013.43	4273.887	5054.202	4423.959	4120.364	4451.011	4362.77	4263.104	4434.273	4230.963	4467.711						
		4321.188	4191.767	4320.565	4269.443	3862.858	4068.105	4494.822	4252.324	4844.11	4711.072	4574.093	3880.726	4844.619	4721.571	4534.428	3999.152	4434.794	4406.69	4570.249	3677.657	4646.98	4490.462	4594	4434.688						
		4593.177	3791.389	4329.917	3907.976	3885.609	4487.321	4122.17	4290.081	4687.028	4097.777	4022.316	3908.565	4046.694	4124.692	4193.365	4274.152	4555.821	5297.894	4995.079	4560.442	4341.774	4002.905	4625.125	4220.448						
		4306.432	4209.361	4718.378	4297.511	3794.981	4211.673	4065.198	4312.241	4092.173	4376.314	4291.197	4633.723	3783.509	4537.288	4488.75	4138.579	4235.329	4417.033	4487.42	4656.56	4053.201	4534.113	4185.674	5607.328						
		4312.313	4567.039	4077.758	4041.474	4363.082	4051.139	4189.504	3765.031	4425.78	4394.021	4663.225	5479.987	4302.986	4517.797	4557.459	5007.43	4853.161	4414.833	4664.595	4171.418	4216.188	4413.99	4495.112	4156.048						
		4858.973	4056.913	4052.469	4281.608	4075.132	4513.2	4882.08	4383.455	4401.042	5275.856	4240.219	4290.464	4267.958	4067.428	4330.505	4496.605	4152.28	4450.367	4526.015	4182.972	5172.27	4501.844	4163.942	4271.644						
		5370.057	3967.287	4376.079	4297.586	4265.016	4065.432	4413.426	4040.436	4312.028	4673.275	4320.305	4334.789	4788.85	3849.664	3982.081	4688.052	4668.332	4018.272	4089.4	4303.719	7961.397	7679.815	4265.097	4374.902						
		4960.876	4277.681	7006.562	7032.323	3948.479	4982.934	3999.901	4527.097	4397.566	5176.24	4290.884	4788.385	7132.753	7014.358	5752.714	5595.277	5808.814	4281.115	3945.312	4313.522	5225.017	4728.818	7876.982	7323.458						
		4513.186	4278.135	4264.845	3970.477	3865.057	4383.327	7386.575	7881.784	4081.826	4986.308	7755.9	7467.629	4551.295	4535.586	7384.193	5842.313	7578.007	5654.27	7764.026	7758.201	4908.79	4493.854	4844.818	5035.079						
		5500.044	5142.888	4963.831	4967.449	6472.34	6162.019	5415.816	4749.477	6755.604	7344.704	4668.268	4787.474	6446.01	5322.102	5772.764	5046.375	9833.48	7249.695	4364.337	4518.292	4361.495	5722.207	5127.11	4552.103						
																															
520	23.9																														
																															
																															
																															
																															
																															
		3959.996	3483.422	3431.036	3820.392	4343.707	3631.093	3982.798	4153.475	4208.26	3710.318	3870.941	3848.874	3852.611	3603.827	3519.896	3961.681	4025.767	4058.286	3740.216	3618.612	3862.176	4194.071	4209.953	4269.58						
		3974.242	3406.979	3639.559	3441.681	3666.842	3980.266	3995.04	4161.322	4000.631	3883.455	4536.684	3810.152	4250.452	3398.081	4227.132	4096.58	3852.721	3685.102	4032.708	4123.913	3418.78	3585.974	3700.491	3842.206						
		3777.833	3507.576	3746.18	3757.45	3544.011	3746.72	3961.49	4003.407	4477.402	3870.065	3675.777	4293.047	4243.077	3922.323	3555.549	4425.622	4108.324	5367.087	4392.242	3982.728	4118.444	3766.172	3794.983	4055.53						
		3582.444	3057.082	3457.137	3566.669	3885.489	3540.712	3786.985	3889.265	4048.924	3530.452	3539.182	4137.108	4274.318	3792.553	3891.91	4181.999	3955.185	4163.543	3430.027	3562.72	4045.67	3919.387	4073.302	4877.114						
		3762.325	3645.802	3984.125	3568.789	3715.835	4084.257	3399.265	3864.641	3973.44	3937.926	4534.351	4735.79	3859.733	3934.12	4432.388	4107.862	3838.845	4075.35	4463.993	4149.304	3689.415	3697.363	4898.16	3830.991						
		4269.087	3606.374	3982.679	4308.446	4130.878	4139.772	4112.673	3737.782	3971.62	4501.834	4336.992	4196.852	3714.04	3951.315	4010.184	3967.722	4313.488	4345.025	4324.526	3688.554	4379.029	3917.37	4421.574	4389.215						
		5237.603	5309.735	4240.19	4211.842	3742.484	3418.573	3717.714	3867.861	3923.95	3609.098	4085.256	4236.648	4389.63	3602.628	4784.084	4869.225	3942.117	3868.69	3880.389	3665.477	3650.062	3939.499	4082.864	4064.416						
		3939.449	3291.98	3284.93	3932.408	3676.898	3595.296	3710.046	3494.082	3876.662	4380.25	3909.186	4251.416	4794.508	4872.729	4588.629	3646.57	4180.099	3783.242	3871.501	3783.47	3859.115	4235.632	4203.141	3749.498						
		3702.187	3532.528	3639.242	3530.972	3732.932	3363.639	4196.225	3741.691	5853.478	6169.754	5365.343	5602.429	3887.567	4385.688	4603.441	3814.292	5436.8	5487.521	3651.876	3925.015	4169.616	4012.225	3861.559	4126.753						
		3796.935	3868.914	3508.14	3362.442	3466.922	3356.747	6388.86	5527.329	4195.739	3569.986	3579.327	4115.791	4365.116	3388.74	4173.57	4034.707	4840.336	3863.702	4339.083	4246.773	3602.26	4669.089	3788.324	4189.729						
																															
525	23.9																														
																															
																															
																															
																															
																															
		3949.054	4007.109	4366.47	3882.058	4139.294	3378.808	3728.44	4070.729	4061.679	3924.335	3799.175	3471.897	4198.108	3987.814	3787.685	4109.475	4077.582	4187.051	3966.292	4124.146	3801.725	4410.245	4191.718	4197.427						
		3887.937	3965.631	3904.987	3874.906	4294.087	4044.619	3715.52	3920.806	4125.483	3493.59	3927.046	3950.195	3442.248	3911.013	3964.964	4245.417	4528.283	3968.083	3980.339	4434.344	4068.066	4305.39	4019.48	4051.786						
		3821.906	3566.619	3776.617	3860.404	3641.77	3674.103	3920.884	4063.311	4092.248	4230.127	3478.983	4710.851	4092.772	3901.916	3813.711	4218.61	3946.976	4995.591	4518.728	4102.682	3579.633	3773.149	4310.221	4162.946						
		3284.395	3421.694	3526.77	3683.4	4010.446	3650.157	3768.526	3840.679	4238.994	4153.335	3607.293	4088.928	4034.127	4238.772	3443.089	3798.653	3683.115	4592.844	3844.833	3360.163	3853.06	3773.688	4211.742	5072.706						
		3658.335	3743.883	3571.564	3686.717	3414.569	4034.893	3775.655	4371.417	4260.236	3479.388	4011.996	5363.152	3964.849	3794.513	4128.505	3914.863	4207.083	4362.382	3330.629	4116.456	3736.165	3715.737	4607.11	3777.779						
		3894.196	4079.647	3909.959	3824.015	3697.517	3842.696	3787.971	3619.635	4126.277	4455.627	4070.503	4271.168	3940.073	4078.609	4058.358	4259.189	4404.356	4185.811	3997.023	3910.856	3960.714	4201.042	3942.465	4361.734						
		3957.674	3908.073	3170.897	3735.795	3550.378	4251.079	3580.798	4245.48	3944.889	4114.765	3444.406	4235.344	3198.881	3927.013	6024.964	6684.467	4130.521	3807.461	3752.363	3809.654	6493.835	6161.703	4041.873	4306.544						
		4166.074	3566.336	3945.924	3691.448	3657.683	3348.323	3861.179	3797.822	3781.333	3591.581	3782.559	4141.201	3692.839	3904.728	3915.944	4073.326	4412.023	3779.905	6350.348	6623.278	4365.234	4144.374	3837.15	3913.567						
		4470.383	4621.773	3743.052	4160.829	4417.155	4707.215	3582.511	3856.798	4042.305	4450.688	4010.802	3909.758	5098.184	5277.542	3957.824	3994.513	5365.272	6326.123	3942.571	3948.547	4064.826	3961.333	6604.481	7002.718						
		3732.794	3822.47	3686.342	3453.949	3403.297	3545.828	4423.704	3430.662	6513.927	6238.9	5611.181	6369.527	3831.944	3857.079	3742.489	4104.272	3872.151	4353.601	3345.691	4079.439	3985.513	5126.797	4002.999	4177.596						
																															
530	23.8																														
																															
																															
																															
																															
																															
		3998.953	3549.798	3250.043	3788.278	3409.8	3695.524	3856.579	3926.717	4289.567	3332.391	4093.96	4190.121	3818.388	3579.876	3681.932	4126.537	3942.21	3690.78	3926.026	3546.343	3792.554	4223.567	4287.422	3696.933						
		3334.465	3471.526	3810.966	3336.716	3832.573	3536.314	3481.862	3360.94	3753.898	3651.249	4027.727	3794.628	3764.77	3808.924	4420.021	3892.181	4038.417	4116.329	4069.691	3617.768	3825.093	3729.838	4251.617	4213.542						
		3162.42	3611.265	3391.452	3411.102	3949.883	3930.297	3463.041	3681.235	3560.982	3685.883	3656.17	4167.203	4004.879	4099.875	4122.37	3888.59	4212.098	4970.631	4731.783	3984.536	3914.454	3636.893	4119.509	3617.732						
		3406.283	3796.503	3757.68	3775.589	3612.811	3944.323	3768.049	3665.056	3739.592	4290.132	4393.379	3814.118	3854.734	4012.114	3786.08	3957.712	3737.9	4008.52	3925.86	3710.495	3764.8	4089.027	3654.088	4717.538						
		3546.771	3381.268	3526.006	3556.899	3786.289	3529.969	3938.562	3879.024	3689.048	4176.809	4402.887	5045.772	4199.453	3943.718	4175.41	3861.634	3924.727	3806.898	3561.997	3841.533	3861.425	4069.784	4164.327	3791.843						
		3541.95	3219.181	3797.271	3775.625	3688.337	3549.624	3142.117	4199.63	4424.809	4715.713	4058.107	4141.283	3610.276	3902.49	4057.395	4222.92	3616.872	3910.466	3688.547	4023.509	3863.104	3828.227	3895.234	3556.446						
		3949.084	3318.517	3537.063	3205.613	3345.431	3925.121	3234.07	3428.409	4147.771	3582.245	3894.662	3724.566	3820.23	3897.951	4584.884	4966.414	3377.418	3684.551	4280.913	3938.053	6156.47	6281.949	5856.396	5633.623						
